File: 041119/silicon raman_1.txt
482.357	1	4
482.892	1	2
483.426	1	13
483.961	1	6
484.496	1	4
485.030	1	16
485.565	1	14
486.099	1	19
486.633	1	14
487.167	1	9
487.701	1	8
488.235	1	15
488.769	1	16
489.303	1	13
489.837	1	14
490.370	1	16
490.904	1	10
491.437	1	18
491.970	1	12
492.504	1	3
493.037	1	3
493.570	1	6
494.103	1	14
494.636	1	16
495.168	1	13
495.701	1	19
496.234	1	-1
496.766	1	9
497.298	1	10
497.831	1	15
498.363	1	9
498.895	1	9
499.427	1	27
499.959	1	7
500.491	1	12
501.022	1	27
501.554	1	15
502.086	1	23
502.617	1	12
503.148	1	20
503.680	1	13
504.211	1	13
504.742	1	21
505.273	1	15
505.804	1	30
506.335	1	18
506.865	1	18
507.396	1	31
507.926	1	20
508.457	1	28
508.987	1	21
509.517	1	20
510.047	1	19
510.577	1	18
511.107	1	28
511.637	1	36
512.167	1	29
512.697	1	31
513.226	1	30
513.756	1	53
514.285	1	42
514.814	1	43
515.344	1	45
515.873	1	69
516.402	1	95
516.931	1	172
517.460	1	245
517.988	1	244
518.517	1	81
519.046	1	45
519.574	1	54
520.102	1	67
520.631	1	83
521.159	1	113
521.687	1	125
522.215	1	127
522.743	1	156
523.271	1	182
523.798	1	198
524.326	1	182
524.853	1	198
525.381	1	231
525.908	1	322
526.436	1	376
526.963	1	684
527.490	1	902
528.017	1	1532
528.544	1	1644
529.070	1	4293
529.597	1	4129
530.124	1	4219
530.650	1	2898
531.177	1	5308
531.703	1	64860
532.229	1	64857
532.755	1	2630
533.281	1	1406
533.807	1	1076
534.333	1	861
534.859	1	725
535.385	1	537
535.910	1	525
536.436	1	709
536.961	1	1128
537.486	1	1519
538.011	1	408
538.537	1	375
539.062	1	255
539.587	1	133
540.111	1	256
540.636	1	394
541.161	1	481
541.685	1	451
542.210	1	403
542.734	1	357
543.258	1	327
543.783	1	310
544.307	1	268
544.831	1	246
545.355	1	211
545.878	1	298
546.402	1	1008
546.926	1	2155
547.449	1	2807
547.973	1	1165
548.496	1	686
549.019	1	523
549.542	1	488
550.065	1	485
550.588	1	487
551.111	1	401
551.634	1	374
552.157	1	355
552.679	1	323
553.202	1	311
553.724	1	286
554.246	1	285
554.769	1	270
555.291	1	291
555.813	1	294
556.335	1	268
556.857	1	263
557.378	1	260
557.900	1	255
558.422	1	258
558.943	1	282
559.464	1	356
559.986	1	505
560.507	1	584
561.028	1	552
561.549	1	462
562.070	1	309
562.591	1	217
563.112	1	173
563.632	1	157
564.153	1	177
564.673	1	162
565.194	1	156
565.714	1	156
566.234	1	143
566.754	1	142
567.274	1	142
567.794	1	136
568.314	1	143
568.833	1	-64
569.353	1	4
569.873	1	129
570.392	1	131
570.911	1	132
571.431	1	130
571.950	1	111
572.469	1	124
572.988	1	104
573.507	1	106
574.025	1	109
574.544	1	101
575.063	1	108
575.581	1	104
576.099	1	101
576.618	1	102
577.136	1	99
577.654	1	104
578.172	1	92
578.690	1	84
579.208	1	98
579.726	1	92
580.243	1	96
580.761	1	93
581.278	1	90
581.796	1	99
582.313	1	80
582.830	1	105
583.347	1	81
583.864	1	80
584.381	1	75
584.898	1	75
585.415	1	85
585.931	1	74
586.448	1	86
586.964	1	78
587.481	1	65
587.997	1	67
588.513	1	62
589.029	1	79
589.545	1	73
590.061	1	68
590.577	1	67
591.093	1	76
591.608	1	61
592.124	1	73
592.639	1	72
593.154	1	60
593.670	1	71
594.185	1	67
594.700	1	65
595.215	1	57
595.730	1	73
596.244	1	44
596.759	1	55
597.274	1	64
597.788	1	50
598.303	1	64
598.817	1	60
599.331	1	47
599.845	1	59
600.359	1	53
600.873	1	63
601.387	1	62
601.901	1	62
602.414	1	51
602.928	1	47
603.441	1	64
603.955	1	51
604.468	1	53
604.981	1	48
605.494	1	59
606.007	1	54
606.520	1	44
607.033	1	58
607.546	1	48
608.058	1	177
608.571	1	50
609.083	1	44
609.596	1	47
610.108	1	45
610.620	1	39
611.132	1	43
611.644	1	50
612.156	1	33
612.668	1	25
613.179	1	22
613.691	1	25
614.203	1	20
614.714	1	19
615.225	1	8
615.736	1	25
616.120	1	15